LabVIEW Measurement
Writer_Version	2
Reader_Version	2
Separator	Tab
Decimal_Separator	,
Multi_Headings	No
X_Columns	One
Time_Pref	Absolute
Operator	ruan.comelli
Date	2019/06/17
Time	10:50:01,9986025500580713151
***End_of_Header***

Channels	1
Samples	1
Date	2019/06/17
Time	10:50:01,9986025500580713151
Y_Unit_Label	Deg C
X_Dimension	Time
X0	0,0000000000000000E+0
Delta_X	0,000000
***End_of_Header***
X_Value	RTD Temperature	Comment
0,000000	9,516251
0,233000	9,515792
0,439000	9,517015
0,645000	9,515792
0,852000	9,516557
1,059000	9,517168
1,275000	9,517321
1,481000	9,515792
1,687000	9,516251
1,893000	9,516098
2,104000	9,516098
2,311000	9,516404
2,529000	9,516404
2,736000	9,515639
2,953000	9,515486
3,159000	9,515792
3,369000	9,515486
3,590000	9,516098
3,804000	9,515792
4,013000	9,515333
4,219000	9,515180
4,426000	9,516404
4,632000	9,515180
4,845000	9,515945
5,053000	9,516251
5,259000	9,515639
5,469000	9,516251
5,687000	9,515792
5,894000	9,515792
6,108000	9,516098
6,315000	9,515945
6,533000	9,516557
6,741000	9,516098
6,951000	9,515486
7,168000	9,516251
7,384000	9,516098
7,602000	9,516710
7,808000	9,516404
8,016000	9,516710
8,227000	9,515486
8,436000	9,515639
8,645000	9,516862
8,869000	9,515792
9,076000	9,515792
9,291000	9,517933
9,500000	9,516251
9,711000	9,516557
9,917000	9,516251
10,128000	9,516710
10,340000	9,516557
10,547000	9,517933
10,762000	9,517627
10,969000	9,516862
11,176000	9,517168
11,417000	9,516710
11,628000	9,517627
11,841000	9,516862
12,047000	9,517780
12,265000	9,518086
12,474000	9,517168
12,683000	9,517474
12,890000	9,518545
13,097000	9,517015
13,303000	9,517015
13,511000	9,517474
13,718000	9,518086
13,943000	9,518392
14,151000	9,517627
14,367000	9,517933
14,574000	9,518545
14,781000	9,519156
14,988000	9,518086
15,194000	9,519003
15,404000	9,519156
15,611000	9,518698
15,818000	9,518545
16,024000	9,519156
16,236000	9,519921
16,444000	9,518392
16,650000	9,519921
16,857000	9,519156
17,068000	9,519768
17,274000	9,520839
17,505000	9,519768
17,718000	9,520074
17,930000	9,520227
18,152000	9,520227
18,359000	9,520227
18,566000	9,521144
18,772000	9,520839
18,981000	9,520686
19,187000	9,521603
19,393000	9,521297
19,602000	9,522368
19,808000	9,522368
20,024000	9,522674
20,234000	9,521603
20,441000	9,522827
20,653000	9,522827
20,865000	9,522827
21,074000	9,522521
21,292000	9,521909
21,498000	9,522980
21,704000	9,522674
21,911000	9,522215
22,118000	9,522215
22,337000	9,522521
22,546000	9,522368
22,761000	9,522215
22,968000	9,522674
23,175000	9,521756
23,384000	9,521909
23,600000	9,522521
23,807000	9,520991
24,014000	9,522215
24,231000	9,521909
24,437000	9,521909
24,650000	9,522368
24,864000	9,521297
25,091000	9,521756
25,299000	9,522062
25,510000	9,522215
25,717000	9,521603
25,925000	9,522215
26,132000	9,521450
26,348000	9,520380
26,558000	9,521756
26,766000	9,521756
26,986000	9,521297
27,193000	9,521450
27,407000	9,521756
27,614000	9,520686
27,825000	9,521603
28,032000	9,521603
28,240000	9,521756
28,447000	9,521603
28,662000	9,521144
28,881000	9,520686
29,088000	9,521297
29,294000	9,520991
29,501000	9,520686
29,708000	9,520227
29,917000	9,521756
30,130000	9,520227
30,339000	9,520839
30,550000	9,521144
30,757000	9,521909
30,969000	9,520686
31,177000	9,521144
31,384000	9,520227
31,591000	9,521603
31,797000	9,520991
32,018000	9,521756
32,228000	9,520991
32,435000	9,520991
32,642000	9,521144
32,863000	9,521603
33,070000	9,521603
33,276000	9,522215
33,483000	9,519921
33,690000	9,522215
33,897000	9,522368
34,104000	9,521603
34,311000	9,521297
34,517000	9,522062
34,748000	9,522521
34,961000	9,522062
35,167000	9,522215
35,380000	9,521756
35,588000	9,521756
35,812000	9,523438
36,020000	9,523285
36,320000	9,522827
36,527000	9,524203
36,737000	9,523132
36,960000	9,523744
37,167000	9,524509
37,376000	9,523744
37,598000	9,523897
37,805000	9,524356
38,011000	9,524509
38,218000	9,523744
38,430000	9,523591
38,637000	9,525579
